File: JinData/Spectra_output_0_1736789543.txt
Wavelength [nm]    	Intensity [counts]
344.912	-1694.98
347.743   	376.57
350.574  	323.908
353.402 	253.904
356.229 	626.813
359.054  	338.964
361.878	860.34
364.7	630.009
367.52    	899.461
370.339	719.355
373.155	1517.98
375.97   	953.314
378.784 	836
381.596	642.787
384.405	830.707
387.214 	817.999
390.02  	964.919
392.825  	627.879
395.628 	865.629
398.429	362.608
401.228   	777.727
404.026    	953.314
406.822  	1099.7
409.616	454.854
412.408	145.869
415.198	149.116
417.987	942.761
420.773	393.746
423.558 	327.135
426.341 	420.563
429.122 	814.821
431.901  	444.143
434.679  	326.06
437.454	319.605
440.228	973.357
443 	794.689
445.769	1141.72
448.537	540.417
451.303	779.848
454.067  	1674.86
456.829	470.915
459.589	272.229
462.347	455.925
465.103  	-20.2502
467.858  	783.029
470.61  	555.366
473.36 	774.546
476.108	1181.59
478.854 	120.962
481.598 	188.052
484.341   	1337.58
487.081  	1096.54
489.819  	379.791
492.555 	400.184
495.289  	1297.86
498.021 	543.621
500.75  	437.714
503.478 	467.704
506.204	1030.26
508.927    	383.012
511.649   	392.673
514.368 	356.161
517.085 	864.572
519.8  	248.512
522.513  	430.211
525.224   	760.757
527.932 	531.871
530.639   	226.934
533.343  	902.631
536.045 	193.456
538.745     	896.291
541.443 	875.148
544.138  	826.471
546.832    	148.034
549.523 	450.57
552.211    	873.033
554.898  	478.408
557.582  	983.902
560.264 	712.981
562.944 	419.491
565.622   	891.006
568.297   	456.996
570.97  	627.879
573.641  	536.144
576.309 	699.167
578.975  	620.422
581.639 	675.776
584.3  	756.513
586.959    	530.803
589.616     	723.604
592.271  	825.412
594.923   	959.645
597.572      	709.794
600.22  	364.756
602.865   	563.906
605.507  	1022.89
608.147  	373.349
610.785  	720.417
613.42  	582.044
616.053 	140.457
618.683   	273.307
621.311   	403.403
623.937 	886.778
626.56 	348.639
629.18 	421.635
631.799   	556.434
634.414 	859.282
637.027       	1157.46
639.638  	543.621
642.246  	531.871
644.852   	727.852
647.455 	1389.8
650.055 	247.434
652.654 	276.539
655.249     	660.882
657.842  	755.452
660.432  	272.229
663.02    	793.63
665.605   	899.461
668.188  	670.457
670.768 	599.106
673.345  	177.242
675.92 	430.211
678.492  	166.428
681.062  	781.969
683.629  	-54.0351
686.193  	659.818
688.755   	268.996
691.314  	463.421
693.87   	728.914
696.423  	384.086
698.974   	129.628
701.523  	883.606
704.068   	521.186
706.611    	754.39
709.151  	875.148
711.688 	370.127
714.223   	924.814
716.755 	125.295
719.284   	718.293
721.81   	604.437
724.334  	688.537
726.855 	816.94
729.373 	348.639
731.888   	514.773
734.4      	384.086
736.91  	802.108
739.417  	762.878
741.921  	401.257
744.422  	298.08
746.92  	980.739
749.416   	968.084
751.908  	848.701
754.398  	461.28
756.885 	540.417
759.369   	-79.1298
761.85  	727.852
764.328         	534.008
766.803   	811.643
769.276 	656.625
771.745  	486.968
774.212  	706.606
776.675    	861.398
779.136   	733.161
781.594  	809.525
784.048    	466.633
786.5 	952.259
788.949 	516.911
791.395       	748.023
793.837  	-111.899
796.277   	40.6709
798.714 	432.355
801.148  	623.618
803.578  	385.159
806.006      	1061.84
808.43   	1102.85
810.852    	519.048
813.271     	445.214
815.686  	1254.95
818.098  	587.377
820.508   	868.802
822.914  	14.579
825.317  	746.962
827.717  	716.168
830.114   	475.197
832.507  	-18.072
834.898  	643.852
837.285 	735.285
839.669 	326.06
842.051 	334.663
844.429 	669.393
846.803  	616.16
849.175  	215.059
851.543 	425.924
853.908   	596.974
856.27  	769.243
858.629   	631.074
860.985  	790.45
863.337  	717.231
865.686    	477.337
868.032   	746.962
870.375    	584.177
872.714  	387.306
875.05     	636.399
877.382  	439.857
879.712     	379.791
882.038     	774.546
884.361    	474.127
886.68   	598.04
888.997    	582.044
891.309  	373.349
893.619  	530.803
895.925  	799.988
898.228    	393.746
900.527  	656.625
902.823   	409.839
905.116     	410.912
907.406   	500.873
909.692  	357.236
911.974  	222.617
914.253  	752.268
916.529    	831.766
918.801   	1093.39
921.07    	707.669
923.335   	632.139
925.597    	557.501
927.856  	521.186
930.111   	1078.67
932.362   	644.917
934.61   	303.463
936.855  	338.964
939.096      	1056.58
941.333  	704.481
943.567   	466.633
945.798   	587.377
948.025  	971.248
950.248  	787.27
952.468     	345.414
954.684    	309.921
956.897   	630.009
959.106  	902.631
961.311  	418.419
963.513   	476.267
965.712   	626.813
967.906   	291.62
970.098  	647.046
972.285  	1014.46
974.469   	207.5
976.649   	341.114
978.826  	656.625
980.999  	718.293
983.168       	1164.81
985.333    	167.51
987.495  	10.2279
989.654  	484.828
991.808    	203.179
993.959      	437.714
996.106  	302.387
998.249  	519.048
1000.39 	751.207
1002.53 	452.712
1004.66 	479.478
1006.79 	739.531
1008.91      	820.117
1011.03  	563.906
1013.15 	677.903
1015.26 	168.591
1017.37  	245.277
1019.48       	329.286
1021.58  	239.883
1023.68  	945.927
1025.77  	1156.41
1027.86  	632.139
1029.95 	418.419
1032.03    	1035.53
1034.11  	822.235
1036.18   	346.489
1038.26  	477.337
1040.32 	519.048
1042.39    	1260.19
1044.45  	504.082
1045.55 	1357.43