File: JinData/Spectra_output_0_1733519714.txt
Wavelength [nm]    	Intensity [counts]
344.912	-1500.84
347.743   	154.744
350.574  	216.355
353.402 	298.296
356.229 	580.124
359.054  	342.405
361.878	790.662
364.7	483.972
367.52    	620.635
370.339	587.591
373.155	1358.69
375.97   	920.801
378.784 	647.259
381.596	608.913
384.405	652.581
387.214 	622.766
390.02  	1084.14
392.825  	569.455
395.628 	661.095
398.429	164.481
401.228   	767.334
404.026    	996.762
406.822  	643
409.616	278.91
412.408	136.342
415.198	-54.9074
417.987	573.723
420.773	190.43
423.558 	265.979
426.341 	265.979
429.122 	547.038
431.901  	399.326
434.679  	162.318
437.454	209.876
440.228	707.881
443 	630.222
445.769	1121.97
448.537	436.857
451.303	577.991
454.067  	1655.36
456.829	406.836
459.589	196.914
462.347	502.157
465.103  	55.0108
467.858  	651.517
470.61  	378.933
473.36 	921.857
476.108	1031.53
478.854 	73.4674
481.598 	372.49
484.341   	1191.24
487.081  	1090.45
489.819  	349.929
492.555 	491.461
495.289  	1274
498.021 	666.415
500.75  	652.581
503.478 	712.132
506.204	1058.89
508.927    	630.222
511.649   	846.797
514.368 	681.306
517.085 	1069.41
519.8  	773.698
522.513  	890.161
525.224   	1378.52
527.932 	976.732
530.639   	1036.79
533.343  	1646.02
536.045 	1318.98
538.745     	1740.37
541.443 	1841.79
544.138  	1831.45
546.832    	1242.59
549.523 	1397.31
552.211    	2090.37
554.898  	1562.92
557.582  	2127.41
560.264 	1750.73
562.944 	1850.06
565.622   	2002.82
568.297   	1666.77
570.97  	1633.56
573.641  	1626.3
576.309 	2037.85
578.975  	1930.62
581.639 	1889.32
584.3  	2233.25
586.959    	1988.39
589.616     	1961.57
592.271  	2086.25
594.923   	2056.39
597.572      	1791.1
600.22  	1596.18
602.865   	1888.29
605.507  	2405.52
608.147  	1464.04
610.785  	2059.48
613.42  	1822.14
616.053 	1376.44
618.683   	1211.16
621.311   	1480.71
623.937 	2053.3
626.56 	1630.45
629.18 	1307.48
631.799   	1706.18
634.414 	1527.56
637.027       	1856.26
639.638  	1058.89
642.246  	1009.41
644.852   	916.576
647.455 	1577.47
650.055 	427.21
652.654 	452.927
655.249     	1012.57
657.842  	861.61
660.432  	247.65
663.02    	1026.26
665.605   	806.558
668.188  	615.307
670.768 	675.989
673.345  	203.396
675.92 	298.296
678.492  	206.636
681.062  	705.756
683.629  	-76.7282
686.193  	465.777
688.755   	207.716
691.314  	316.593
693.87   	740.805
696.423  	367.12
698.974   	-60.3609
701.523  	871.129
704.068   	367.12
706.611    	552.377
709.151  	656.838
711.688 	301.526
714.223   	892.275
716.755 	63.6978
719.284   	576.924
721.81   	604.65
724.334  	557.715
726.855 	598.254
729.373 	259.511
731.888   	623.831
734.4      	305.831
736.91  	702.568
739.417  	731.25
741.921  	382.154
744.422  	430.426
746.92  	822.447
749.416   	782.181
751.908  	953.526
754.398  	396.107
756.885 	481.832
759.369   	-100.752
761.85  	623.831
764.328         	465.777
766.803   	688.749
769.276 	611.045
771.745  	330.577
774.212  	448.642
776.675    	677.052
779.136   	544.903
781.594  	892.275
784.048    	391.814
786.5 	801.26
788.949 	431.498
791.395       	651.517
793.837  	-200.368
796.277   	44.1481
798.714 	185.026
801.148  	671.734
803.578  	359.6
806.006      	813.974
808.43   	786.422
810.852    	545.97
813.271     	310.136
815.686  	1014.67
818.098  	398.253
820.508   	785.361
822.914  	-151.058
825.317  	605.716
827.717  	565.187
830.114   	473.271
832.507  	-32.0153
834.898  	522.468
837.285 	408.981
839.669 	170.971
842.051 	349.929
844.429 	431.498
846.803  	447.571
849.175  	263.823
851.543 	345.63
853.908   	503.226
856.27  	660.031
858.629   	488.252
860.985  	724.879
863.337  	699.38
865.686    	312.289
868.032   	725.941
870.375    	604.65
872.714  	254.12
875.05     	500.018
877.382  	291.835
879.712     	396.107
882.038     	647.259
884.361    	505.365
886.68   	531.017
888.997    	630.222
891.309  	333.803
893.619  	396.107
895.925  	846.797
898.228    	444.357
900.527  	536.358
902.823   	360.674
905.116     	406.836
907.406   	447.571
909.692  	253.042
911.974  	132.011
914.253  	605.716
916.529    	729.126
918.801   	918.689
921.07    	518.193
923.335   	435.785
925.597    	539.563
927.856  	268.134
930.111   	1022.05
932.362   	601.452
934.61   	117.929
936.855  	-24.389
939.096      	999.924
941.333  	674.925
943.567   	362.823
945.798   	450.785
948.025  	811.856
950.248  	582.258
952.468     	-15.676
954.684    	200.155
956.897   	627.027
959.106  	793.842
961.311  	314.441
963.513   	383.227
965.712   	619.569
967.906   	22.4095
970.098  	570.522
972.285  	829.86
974.469   	38.7151
976.649   	205.556
978.826  	581.191
980.999  	665.351
983.168       	954.581
985.333    	77.8082
987.495  	-77.8197
989.654  	522.468
991.808    	2.82952
993.959      	699.38
996.106  	319.821
998.249  	349.929
1000.39 	495.74
1002.53 	281.065
1004.66 	485.042
1006.79 	474.341
1008.91      	673.861
1011.03  	557.715
1013.15 	656.838
1015.26 	102.755
1017.37  	88.6574
1019.48       	241.178
1021.58  	148.251
1023.68  	781.121
1025.77  	938.75
1027.86  	689.813
1029.95 	288.605
1032.03    	838.329
1034.11  	909.182
1036.18   	474.341
1038.26  	439
1040.32 	286.45
1042.39    	1132.48
1044.45  	519.262
1045.55 	1188.1