File: JinData/Spectra_output_0_1736790438.txt
Wavelength [nm]    	Intensity [counts]
344.912	-1816.94
347.743   	186.107
350.574  	300.449
353.402 	457.211
356.229 	517.125
359.054  	343.48
361.878	1048.37
364.7	788.542
367.52    	688.749
370.339	569.455
373.155	1503.62
375.97   	1125.12
378.784 	870.072
381.596	560.917
384.405	967.24
387.214 	813.974
390.02  	914.464
392.825  	464.706
395.628 	754.603
398.429	332.728
401.228   	690.876
404.026    	965.131
406.822  	1036.79
409.616	355.302
412.408	263.823
415.198	203.396
417.987	900.729
420.773	492.531
423.558 	383.227
426.341 	507.503
429.122 	788.542
431.901  	506.434
434.679  	408.981
437.454	300.449
440.228	966.185
443 	784.301
445.769	1043.11
448.537	357.451
451.303	817.152
454.067  	1594.1
456.829	433.641
459.589	143.921
462.347	567.321
465.103  	7.18188
467.858  	690.876
470.61  	457.211
473.36 	898.616
476.108	1155.57
478.854 	137.425
481.598 	263.823
484.341   	1357.64
487.081  	1025.21
489.819  	245.493
492.555 	441.143
495.289  	1279.23
498.021 	627.027
500.75  	319.821
503.478 	420.778
506.204	880.646
508.927    	377.859
511.649   	306.908
514.368 	430.426
517.085 	779
519.8  	282.142
522.513  	345.63
525.224   	698.317
527.932 	348.854
530.639   	311.213
533.343  	835.154
536.045 	166.645
538.745     	927.137
541.443 	1030.47
544.138  	717.443
546.832    	120.096
549.523 	528.88
552.211    	948.249
554.898  	460.423
557.582  	768.395
560.264 	722.754
562.944 	697.254
565.622   	721.692
568.297   	443.286
570.97  	641.936
573.641  	446.5
576.309 	724.879
578.975  	556.648
581.639 	750.358
584.3  	829.86
586.959    	413.271
589.616     	643
592.271  	842.563
594.923   	881.704
597.572      	535.29
600.22  	287.527
602.865   	385.374
605.507  	1170.27
608.147  	413.271
610.785  	689.813
613.42  	767.334
616.053 	155.826
618.683   	260.589
621.311   	391.814
623.937 	951.415
626.56 	255.198
629.18 	378.933
631.799   	497.879
634.414 	967.24
637.027       	1074.67
639.638  	613.176
642.246  	250.885
644.852   	725.941
647.455 	1478.63
650.055 	262.745
652.654 	276.755
655.249     	708.944
657.842  	711.069
660.432  	274.6
663.02    	684.496
665.605   	970.404
668.188  	766.273
670.768 	505.365
673.345  	253.042
675.92 	361.749
678.492  	101.671
681.062  	891.218
683.629  	-21.1213
686.193  	567.321
688.755   	352.078
691.314  	276.755
693.87   	752.481
696.423  	443.286
698.974   	24.5842
701.523  	646.194
704.068   	506.434
706.611    	836.212
709.151  	706.819
711.688 	366.046
714.223   	758.847
716.755 	237.941
719.284   	883.818
721.81   	587.591
724.334  	613.176
726.855 	823.506
729.373 	279.987
731.888   	545.97
734.4      	397.18
736.91  	822.447
739.417  	918.689
741.921  	420.778
744.422  	344.555
746.92  	1066.26
749.416   	1026.26
751.908  	735.497
754.398  	359.6
756.885 	600.386
759.369   	15.8844
761.85  	576.924
764.328         	559.85
766.803   	880.646
769.276 	820.329
771.745  	376.785
774.212  	566.254
776.675    	825.624
779.136   	708.944
781.594  	816.093
784.048    	370.342
786.5 	1112.52
788.949 	453.998
791.395       	571.589
793.837  	-22.2105
796.277   	385.374
798.714 	441.143
801.148  	593.989
803.578  	370.342
806.006      	916.576
808.43   	1198.58
810.852    	504.296
813.271     	325.199
815.686  	1291.79
818.098  	630.222
820.508   	587.591
822.914  	-130.268
825.317  	780.06
827.717  	713.194
830.114   	458.282
832.507  	94.0803
834.898  	687.686
837.285 	670.67
839.669 	273.523
842.051 	216.355
844.429 	551.309
846.803  	746.113
849.175  	370.342
851.543 	505.365
853.908   	694.065
856.27  	870.072
858.629   	525.674
860.985  	740.805
863.337  	671.734
865.686    	356.377
868.032   	629.157
870.375    	450.785
872.714  	395.034
875.05     	568.388
877.382  	305.831
879.712     	527.811
882.038     	912.351
884.361    	535.29
886.68   	608.913
888.997    	641.936
891.309  	463.636
893.619  	466.848
895.925  	789.602
898.228    	301.526
900.527  	770.516
902.823   	456.14
905.116     	559.85
907.406   	415.416
909.692  	529.948
911.974  	221.753
914.253  	603.584
916.529    	681.306
918.801   	1058.89
921.07    	524.606
923.335   	656.838
925.597    	481.832
927.856  	567.321
930.111   	1016.78
932.362   	631.287
934.61   	250.885
936.855  	156.908
939.096      	945.083
941.333  	420.778
943.567   	411.126
945.798   	478.622
948.025  	1065.21
950.248  	620.635
952.468     	140.673
954.684    	392.887
956.897   	668.543
959.106  	795.962
961.311  	374.638
963.513   	557.715
965.712   	611.045
967.906   	389.668
970.098  	520.331
972.285  	1000.98
974.469   	192.592
976.649   	279.987
978.826  	780.06
980.999  	852.088
983.168       	1070.47
985.333    	73.4674
987.495  	-30.9257
989.654  	706.819
991.808    	216.355
993.959      	425.066
996.106  	210.956
998.249  	643
1000.39 	664.287
1002.53 	311.213
1004.66 	387.521
1006.79 	763.091
1008.91      	800.201
1011.03  	497.879
1013.15 	660.031
1015.26 	263.823
1017.37  	212.036
1019.48       	464.706
1021.58  	72.382
1023.68  	935.583
1025.77  	1026.26
1027.86  	681.306
1029.95 	514.987
1032.03    	1002.03
1034.11  	1018.89
1036.18   	377.859
1038.26  	539.563
1040.32 	628.092
1042.39    	1332.57
1044.45  	390.741
1045.55 	1292.84