File: JinData/Spectra_output_0_1732215328.txt
Wavelength [nm]    	Intensity [counts]
344.912	-1516.35
347.743   	196.625
350.574  	344.268
353.402 	1203.55
356.229 	2243.25
359.054  	421.564
361.878	754.32
364.7	684.213
367.52    	571.305
370.339	1051.25
373.155	1524.16
375.97   	743.707
378.784 	758.564
381.596	570.238
384.405	762.808
387.214 	735.214
390.02  	1058.61
392.825  	772.354
395.628 	878.249
398.429	484.757
401.228   	836.988
404.026    	1367.81
406.822  	895.163
409.616	7960.45
412.408	250.597
415.198	173.926
417.987	912.069
420.773	350.717
423.558 	264.613
426.341 	481.547
429.122 	632.068
431.901  	4863.55
434.679  	535.005
437.454	225.783
440.228	875.077
443 	705.473
445.769	1376.16
448.537	612.892
451.303	802.037
454.067  	1595.9
456.829	834.871
459.589	149.044
462.347	1556.4
465.103  	112.221
467.858  	778.717
470.61  	463.35
473.36 	675.705
476.108	1070.18
478.854 	281.854
481.598 	371.129
484.341   	62567
487.081  	62567
489.819  	797.798
492.555 	1894.21
495.289  	1295.69
498.021 	716.098
500.75  	915.238
503.478 	447.285
506.204	947.968
508.927    	352.866
511.649   	441.928
514.368 	479.406
517.085 	757.503
519.8  	240.89
522.513  	370.055
525.224   	885.65
527.932 	304.468
530.639   	298.009
533.343  	992.265
536.045 	232.258
538.745     	774.475
541.443 	958.52
544.138  	927.911
546.832    	306.62
549.523 	241.969
552.211    	923.687
554.898  	317.382
557.582  	1044.93
560.264 	514.701
562.944 	579.84
565.622   	1040.72
568.297   	1587.59
570.97  	646.975
573.641  	816.869
576.309 	1454.39
578.975  	2823.9
581.639 	3194.84
584.3  	1909.7
586.959    	1474.18
589.616     	1081.75
592.271  	3513.88
594.923   	1310.34
597.572      	3752.35
600.22  	1115.39
602.865   	3394.47
605.507  	1565.76
608.147  	1188.87
610.785  	951.134
613.42  	1171.03
616.053 	313.078
618.683   	266.769
621.311   	456.925
623.937 	622.481
626.56 	366.833
629.18 	289.394
631.799   	742.645
634.414 	790.379
637.027       	1069.13
639.638  	581.973
642.246  	459.067
644.852   	908.9
647.455 	1284.19
650.055 	10315.6
652.654 	739.461
655.249     	62567
657.842  	62567
660.432  	62567
663.02    	62567
665.605   	3167.45
668.188  	1196.21
670.768 	1005.97
673.345  	536.073
675.92 	468.703
678.492  	357.164
681.062  	708.66
683.629  	94.8754
686.193  	571.305
688.755   	379.72
691.314  	281.854
693.87   	776.596
696.423  	290.471
698.974   	211.748
701.523  	881.421
704.068   	477.266
706.611    	493.315
709.151  	589.439
711.688 	281.854
714.223   	843.339
716.755 	93.791
719.284   	724.595
721.81   	668.259
724.334  	436.571
726.855 	481.547
729.373 	132.805
731.888   	704.41
734.4      	277.545
736.91  	654.426
739.417  	661.875
741.921  	542.482
744.422  	592.638
746.92  	740.522
749.416   	767.051
751.908  	1079.65
754.398  	396.894
756.885 	477.266
759.369   	130.639
761.85  	784.018
764.328         	722.471
766.803   	625.677
769.276 	463.35
771.745  	272.158
774.212  	605.431
776.675    	62567
779.136   	861.328
781.594  	861.328
784.048    	468.703
786.5 	833.812
788.949 	461.208
791.395       	707.598
793.837  	17.7694
796.277   	123.057
798.714 	143.632
801.148  	608.629
803.578  	289.394
806.006      	807.335
808.43   	906.787
810.852    	632.068
813.271     	510.425
815.686  	1036.51
818.098  	500.802
820.508   	1094.37
822.914  	-165.586
825.317  	579.84
827.717  	589.439
830.114   	591.572
832.507  	99.2129
834.898  	529.663
837.285 	453.712
839.669 	153.373
842.051 	463.35
844.429 	20083.4
846.803  	576.639
849.175  	285.086
851.543 	333.516
853.908   	362.536
856.27  	584.106
858.629   	547.821
860.985  	638.457
863.337  	543.55
865.686    	385.088
868.032   	725.657
870.375    	523.252
872.714  	388.308
875.05     	358.239
877.382  	265.691
879.712     	296.932
882.038     	715.035
884.361    	328.139
886.68   	619.285
888.997    	515.77
891.309  	259.223
893.619  	308.773
895.925  	999.642
898.228    	397.967
900.527  	374.351
902.823   	257.067
905.116     	568.103
907.406   	427.996
909.692  	323.837
911.974  	118.723
914.253  	574.505
916.529    	648.039
918.801   	836.988
921.07    	425.852
923.335   	561.7
925.597    	632.068
927.856  	331.366
930.111   	943.746
932.362   	650.168
934.61   	207.428
936.855  	100.297
939.096      	943.746
941.333  	684.213
943.567   	349.642
945.798   	303.391
948.025  	673.578
950.248  	618.22
952.468     	144.715
954.684    	84.0288
956.897   	404.404
959.106  	895.163
961.311  	315.23
963.513   	298.009
965.712   	425.852
967.906   	220.386
970.098  	604.365
972.285  	821.106
974.469   	85.1136
976.649   	150.127
978.826  	485.827
980.999  	698.033
983.168       	905.73
985.333    	-19.2337
987.495  	11.2432
989.654  	330.29
991.808    	86.1984
993.959      	703.347
996.106  	129.556
998.249  	335.667
1000.39 	392.601
1002.53 	501.872
1004.66 	378.646
1006.79 	426.924
1008.91      	626.742
1011.03  	579.84
1013.15 	569.17
1015.26 	64.4938
1017.37  	-87.9369
1019.48       	418.347
1021.58  	-11.6111
1023.68  	537.141
1025.77  	678.896
1027.86  	675.705
1029.95 	402.258
1032.03    	725.657
1034.11  	561.7
1036.18   	382.941
1038.26  	416.202
1040.32 	310.925
1042.39    	934.246
1044.45  	358.239
1045.55 	972.232