File: JinData/Spectra_output_0_1743438229.txt
Wavelength [nm]    	Intensity [counts]
344.912	-184.871
347.743   	54.0695
350.574  	-113.72
353.402 	-53.6715
356.229 	72.5267
359.054  	-17.7088
361.878	-6.8208
364.7	-6.8208
367.52    	94.2249
370.339	83.378
373.155	66.0139
375.97   	17.117
378.784 	92.0559
381.596	67.0994
384.405	4.06273
387.214 	42.1199
390.02  	135.404
392.825  	103.983
395.628 	-49.3097
398.429	13.8541
401.228   	86.6325
404.026    	129.989
406.822  	187.332
409.616	-80.9491
412.408	-90.7761
415.198	-64.579
417.987	54.0695
420.773	-15.5309
423.558 	-52.5809
426.341 	31.252
429.122 	-43.8585
431.901  	64.9282
434.679  	-87.5
437.454	-16.6198
440.228	18.2046
443 	-71.1258
445.769	31.252
448.537	45.3794
451.303	43.2065
454.067  	165.707
456.829	13.8541
459.589	-1.37847
462.347	-28.6014
465.103  	-35.1391
467.858  	80.1231
470.61  	-10.0867
473.36 	32.339
476.108	165.707
478.854 	52.9834
481.598 	-64.579
484.341   	41.0333
487.081  	85.5477
489.819  	93.1404
492.555 	21.4671
495.289  	90.9713
498.021 	7.32691
500.75  	-127.934
503.478 	93.1404
506.204	-25.3331
508.927    	-27.5119
511.649   	-52.5809
514.368 	27.9907
517.085 	84.4629
519.8  	58.4135
522.513  	211.1
525.224   	47.5522
527.932 	113.738
530.639   	0.798142
533.343  	66.0139
536.045 	7.32691
538.745     	114.822
541.443 	54.0695
544.138  	5.15083
546.832    	-68.9434
549.523 	-148.723
552.211    	10.5907
554.898  	-12.2642
557.582  	49.7248
560.264 	98.5625
562.944 	32.339
565.622   	62.7569
568.297   	-2.46685
570.97  	-25.3331
573.641  	82.2931
576.309 	-42.7684
578.975  	43.2065
581.639 	42.1199
584.3  	17.117
586.959    	-64.579
589.616     	80.1231
592.271  	-120.28
594.923   	-38.4085
597.572      	34.5128
600.22  	-91.8682
602.865   	-53.6715
605.507  	101.815
608.147  	-85.3161
610.785  	72.5267
613.42  	-44.9487
616.053 	-153.102
618.683   	11.6785
621.311   	-41.6784
623.937 	22.5545
626.56 	92.0559
629.18 	-32.9596
631.799   	62.7569
634.414 	20.3796
637.027       	69.2705
639.638  	74.6973
642.246  	-37.3187
644.852   	-5.73224
647.455 	31.252
650.055 	110.487
652.654 	-23.1545
655.249     	6.2389
657.842  	29.0779
660.432  	-84.2243
663.02    	154.888
665.605   	52.9834
668.188  	68.185
670.768 	50.8111
673.345  	-79.8574
675.92 	86.6325
678.492  	20.3796
681.062  	13.8541
683.629  	-22.0653
686.193  	-30.7804
688.755   	-51.4905
691.314  	-95.1448
693.87   	33.4259
696.423  	343.623
698.974   	-6.8208
701.523  	224.056
704.068   	36.6865
706.611    	492.674
709.151  	139.735
711.688 	-65.6701
714.223   	20.3796
716.755 	19.2921
719.284   	22.5545
721.81   	-62.3972
724.334  	92.0559
726.855 	49.7248
729.373 	-24.2438
731.888   	-2.46685
734.4      	68.185
736.91  	2.97458
739.417  	176.522
741.921  	45.3794
744.422  	54.0695
746.92  	127.823
749.416   	109.403
751.908  	2735.67
754.398  	19.2921
756.885 	47.5522
759.369   	-36.2288
761.85  	-20.9761
764.328         	986.362
766.803   	34.5128
769.276 	10.5907
771.745  	63.8426
774.212  	-80.9491
776.675    	56.2416
779.136   	118.073
781.594  	-12.2642
784.048    	6.2389
786.5 	107.236
788.949 	63.8426
791.395       	37.7733
793.837  	-41.6784
796.277   	36.6865
798.714 	-75.4912
801.148  	879.73
803.578  	86.6325
806.006      	146.23
808.43   	-11.1755
810.852    	2409.75
813.271     	38.86
815.686  	120.24
818.098  	42.1199
820.508   	180.846
822.914  	-29.6909
825.317  	-58.0339
827.717  	27.9907
830.114   	20.3796
832.507  	-94.0526
834.898  	-64.579
837.285 	26.9036
839.669 	-72.2171
842.051 	2381.07
844.429 	61.6711
846.803  	-70.0346
849.175  	59.4994
851.543 	79.038
853.908   	9.50281
856.27  	-52.5809
858.629   	51.8973
860.985  	137.57
863.337  	32.339
865.686    	59.4994
868.032   	106.152
870.375    	42.1199
872.714  	26.9036
875.05     	-26.4225
877.382  	60.5853
879.712     	-19.887
882.038     	6.2389
884.361    	11.6785
886.68   	131.072
888.997    	-2.46685
891.309  	-12.2642
893.619  	18.2046
895.925  	95.3094
898.228    	-8.99804
900.527  	122.407
902.823   	-7.9094
905.116     	35.5997
907.406   	63.8426
909.692  	-64.579
911.974  	33.4259
914.253  	19.2921
916.529    	56.2416
918.801   	133.238
921.07    	59.4994
923.335   	-6.8208
925.597    	-12.2642
927.856  	-48.2194
930.111   	60.5853
932.362   	75.7826
934.61   	-55.8526
936.855  	-46.0389
939.096      	128.906
941.333  	58.4135
943.567   	-30.7804
945.798   	1.88638
948.025  	131.072
950.248  	64.9282
952.468     	-25.3331
954.684    	-37.3187
956.897   	-25.3331
959.106  	-5.73224
961.311  	-14.4419
963.513   	-50.4001
965.712   	4.06273
967.906   	-50.4001
970.098  	96.3938
972.285  	132.155
974.469   	-5.73224
976.649   	-58.0339
978.826  	-35.1391
980.999  	61.6711
983.168       	81.2081
985.333    	-42.7684
987.495  	-66.7611
989.654  	-37.3187
991.808    	2.97458
993.959      	49.7248
996.106  	25.8164
998.249  	11.6785
1000.39 	46.4659
1002.53 	35.5997
1004.66 	79.038
1006.79 	6.2389
1008.91      	2.97458
1011.03  	131.072
1013.15 	85.5477
1015.26 	-139.968
1017.37  	16.0294
1019.48       	-6.8208
1021.58  	-32.9596
1023.68  	126.74
1025.77  	58.4135
1027.86  	79.038
1029.95 	102.899
1032.03    	154.888
1034.11  	58.4135
1036.18   	-114.814
1038.26  	-63.4881
1040.32 	-42.7684
1042.39    	51.8973
1044.45  	81.2081
1045.55 	68.185