File: JinData/Spectra_output_0_1733519723.txt
Wavelength [nm]    	Intensity [counts]
344.912	-1524.54
347.743   	200.947
350.574  	151.209
353.402 	353.941
356.229 	560.632
359.054  	394.747
361.878	753.259
364.7	425.852
367.52    	675.705
370.339	500.802
373.155	1228.7
375.97   	745.83
378.784 	740.522
381.596	484.757
384.405	510.425
387.214 	586.24
390.02  	1001.75
392.825  	394.747
395.628 	699.096
398.429	157.701
401.228   	639.522
404.026    	1162.64
406.822  	745.83
409.616	192.303
412.408	60.1508
415.198	170.682
417.987	809.454
420.773	307.697
423.558 	175.008
426.341 	323.837
429.122 	605.431
431.901  	323.837
434.679  	191.223
437.454	80.7739
440.228	785.079
443 	675.705
445.769	953.244
448.537	461.208
451.303	544.618
454.067  	1606.29
456.829	482.617
459.589	296.932
462.347	467.633
465.103  	-71.5625
467.858  	693.781
470.61  	349.642
473.36 	672.514
476.108	1132.2
478.854 	-11.6111
481.598 	303.391
484.341   	1129.05
487.081  	991.211
489.819  	338.893
492.555 	595.837
495.289  	1438.75
498.021 	674.641
500.75  	523.252
503.478 	616.089
506.204	960.63
508.927    	771.294
511.649   	830.636
514.368 	757.503
517.085 	1029.14
519.8  	728.843
522.513  	922.631
525.224   	1555.36
527.932 	821.106
530.639   	1057.56
533.343  	1585.51
536.045 	1223.46
538.745     	1661.31
541.443 	1932.41
544.138  	1749.42
546.832    	1309.29
549.523 	1189.92
552.211    	2147.7
554.898  	1656.12
557.582  	2155.92
560.264 	1787.72
562.944 	1982.96
565.622   	1944.79
568.297   	1673.76
570.97  	1620.83
573.641  	1559.52
576.309 	1918.99
578.975  	1869.42
581.639 	1796
584.3  	2308.92
586.959    	1861.15
589.616     	1899.37
592.271  	2142.56
594.923   	1931.38
597.572      	1575.12
600.22  	1692.42
602.865   	1865.28
605.507  	2313.02
608.147  	1548.08
610.785  	2041.7
613.42  	1743.2
616.053 	1270.58
618.683   	1432.5
621.311   	1658.19
623.937 	1864.25
626.56 	1489.81
629.18 	1366.76
631.799   	1664.42
634.414 	1529.36
637.027       	1827.03
639.638  	936.357
642.246  	861.328
644.852   	956.409
647.455 	1541.84
650.055 	510.425
652.654 	507.218
655.249     	952.189
657.842  	689.529
660.432  	303.391
663.02    	813.691
665.605   	906.787
668.188  	590.505
670.768 	559.565
673.345  	208.508
675.92 	278.622
678.492  	211.748
681.062  	626.742
683.629  	-150.256
686.193  	343.193
688.755   	200.947
691.314  	231.179
693.87   	659.747
696.423  	195.545
698.974   	62.3224
701.523  	717.16
704.068   	381.867
706.611    	561.7
709.151  	667.195
711.688 	227.942
714.223   	818.988
716.755 	-41.0246
719.284   	610.76
721.81   	495.455
724.334  	404.404
726.855 	696.97
729.373 	271.08
731.888   	617.154
734.4      	268.925
736.91  	591.572
739.417  	673.578
741.921  	565.969
744.422  	387.235
746.92  	825.342
749.416   	816.869
751.908  	875.077
754.398  	307.697
756.885 	375.425
759.369   	-35.5751
761.85  	658.683
764.328         	496.524
766.803   	574.505
769.276 	563.834
771.745  	291.548
774.212  	570.238
776.675    	786.139
779.136   	523.252
781.594  	671.45
784.048    	318.458
786.5 	949.023
788.949 	423.708
791.395       	762.808
793.837  	-49.746
796.277   	31.904
798.714 	206.348
801.148  	729.905
803.578  	345.343
806.006      	943.746
808.43   	878.249
810.852    	504.01
813.271     	356.09
815.686  	1145.85
818.098  	490.106
820.508   	1012.29
822.914  	-122.904
825.317  	601.167
827.717  	482.617
830.114   	529.663
832.507  	28.6429
834.898  	506.149
837.285 	480.477
839.669 	229.021
842.051 	559.565
844.429 	549.957
846.803  	563.834
849.175  	190.142
851.543 	445.142
853.908   	388.308
856.27  	726.719
858.629   	556.363
860.985  	725.657
863.337  	562.767
865.686    	366.833
868.032   	816.869
870.375    	624.612
872.714  	368.981
875.05     	481.547
877.382  	388.308
879.712     	410.84
882.038     	727.781
884.361    	403.331
886.68   	701.222
888.997    	593.704
891.309  	226.862
893.619  	380.794
895.925  	875.077
898.228    	494.385
900.527  	467.633
902.823   	392.601
905.116     	485.827
907.406   	278.622
909.692  	291.548
911.974  	156.619
914.253  	649.104
916.529    	788.259
918.801   	792.499
921.07    	445.142
923.335   	518.977
925.597    	557.43
927.856  	362.536
930.111   	953.244
932.362   	526.458
934.61   	236.574
936.855  	168.519
939.096      	982.777
941.333  	629.938
943.567   	505.08
945.798   	305.544
948.025  	912.069
950.248  	661.875
952.468     	48.2039
954.684    	206.348
956.897   	505.08
959.106  	699.096
961.311  	394.747
963.513   	288.317
965.712   	438.714
967.906   	144.715
970.098  	593.704
972.285  	684.213
974.469   	3.62731
976.649   	288.317
978.826  	514.701
980.999  	658.683
983.168       	952.189
985.333    	43.8582
987.495  	-130.56
989.654  	417.275
991.808    	14.5065
993.959      	669.323
996.106  	267.847
998.249  	302.315
1000.39 	483.687
1002.53 	577.706
1004.66 	342.118
1006.79 	527.526
1008.91      	607.563
1011.03  	436.571
1013.15 	693.781
1015.26 	35.1648
1017.37  	78.6038
1019.48       	373.277
1021.58  	169.601
1023.68  	544.618
1025.77  	872.962
1027.86  	676.768
1029.95 	404.404
1032.03    	908.9
1034.11  	777.657
1036.18   	288.317
1038.26  	396.894
1040.32 	429.068
1042.39    	976.451
1044.45  	456.925
1045.55 	1120.64