File: JinData/Spectra_output_0_1737048694.txt
Wavelength [nm]    	Intensity [counts]
344.912	-1705.47
347.743   	227.078
350.574  	364.9
353.402 	186.035
356.229 	703.56
359.054  	338.033
361.878	841.434
364.7	675.918
367.52    	482.831
370.339	672.727
373.155	1281.26
375.97   	948.179
378.784 	808.607
381.596	577.92
384.405	789.531
387.214 	753.471
390.02  	923.899
392.825  	536.287
395.628 	805.428
398.429	223.84
401.228   	764.081
404.026    	946.068
406.822  	827.672
409.616	362.751
412.408	127.606
415.198	95.0925
417.987	734.365
420.773	364.9
423.558 	279.915
426.341 	491.39
429.122 	674.854
431.901  	518.122
434.679  	179.549
437.454	82.0761
440.228	917.562
443 	737.55
445.769	1039.88
448.537	446.428
451.303	715.248
454.067  	1591.95
456.829	429.283
459.589	237.869
462.347	513.847
465.103  	97.2613
467.858  	653.575
470.61  	568.317
473.36 	765.142
476.108	1034.61
478.854 	17.9872
481.598 	296.071
484.341   	1052.51
487.081  	1067.24
489.819  	342.333
492.555 	504.224
495.289  	1250.9
498.021 	446.428
500.75  	324.052
503.478 	469.988
506.204	811.785
508.927    	308.988
511.649   	529.877
514.368 	375.64
517.085 	717.373
519.8  	220.602
522.513  	398.181
525.224   	691.868
527.932 	315.445
530.639   	235.712
533.343  	917.562
536.045 	354.156
538.745     	875.289
541.443 	832.966
544.138  	783.17
546.832    	199.003
549.523 	381.008
552.211    	878.461
554.898  	339.108
557.582  	802.249
560.264 	733.303
562.944 	411.055
565.622   	858.366
568.297   	354.156
570.97  	489.251
573.641  	488.181
576.309 	814.963
578.975  	607.776
581.639 	609.908
584.3  	680.172
586.959    	476.41
589.616     	739.673
592.271  	736.488
594.923   	782.11
597.572      	420.706
600.22  	188.197
602.865   	299.301
605.507  	1084.07
608.147  	342.333
610.785  	669.536
613.42  	556.576
616.053 	45.1622
618.683   	159
621.311   	453.927
623.937 	732.241
626.56 	220.602
629.18 	241.106
631.799   	667.408
634.414 	816.022
637.027       	1064.08
639.638  	592.852
642.246  	440
644.852   	692.931
647.455 	1328.32
650.055 	220.602
652.654 	201.163
655.249     	817.081
657.842  	714.186
660.432  	252.97
663.02    	771.506
665.605   	812.844
668.188  	603.513
670.768 	467.847
673.345  	113.522
675.92 	424.995
678.492  	159
681.062  	788.471
683.629  	-242.157
686.193  	422.851
688.755   	280.993
691.314  	287.456
693.87   	657.832
696.423  	326.203
698.974   	79.9061
701.523  	739.673
704.068   	574.719
706.611    	573.652
709.151  	830.848
711.688 	252.97
714.223   	900.659
716.755 	75.5656
719.284   	669.536
721.81   	631.216
724.334  	605.645
726.855 	746.042
729.373 	220.602
731.888   	535.219
734.4      	205.484
736.91  	647.188
739.417  	859.424
741.921  	440
744.422  	415.345
746.92  	1115.6
749.416   	847.785
751.908  	950.29
754.398  	483.901
756.885 	322.976
759.369   	-47.3471
761.85  	606.711
764.328         	408.91
766.803   	759.837
769.276 	571.518
771.745  	347.708
774.212  	602.447
776.675    	826.613
779.136   	729.056
781.594  	807.547
784.048    	402.473
786.5 	940.791
788.949 	557.644
791.395       	555.509
793.837  	-122.685
796.277   	121.107
798.714 	228.158
801.148  	606.711
803.578  	461.423
806.006      	924.955
808.43   	1133.46
810.852    	626.956
813.271     	436.785
815.686  	1110.35
818.098  	498.877
820.508   	802.249
822.914  	-127.059
825.317  	730.118
827.717  	693.994
830.114   	466.776
832.507  	-121.592
834.898  	673.791
837.285 	635.476
839.669 	362.751
842.051 	379.935
844.429 	465.706
846.803  	572.585
849.175  	219.522
851.543 	297.147
853.908   	451.784
856.27  	829.789
858.629   	586.453
860.985  	803.309
863.337  	652.51
865.686    	458.21
868.032   	652.51
870.375    	544.831
872.714  	374.566
875.05     	515.984
877.382  	392.816
879.712     	330.505
882.038     	828.731
884.361    	534.15
886.68   	602.447
888.997    	698.246
891.309  	399.254
893.619  	489.251
895.925  	850.959
898.228    	445.357
900.527  	492.46
902.823   	336.957
905.116     	491.39
907.406   	381.008
909.692  	352.007
911.974  	9.28528
914.253  	651.446
916.529    	706.748
918.801   	1112.45
921.07    	445.357
923.335   	521.328
925.597    	605.645
927.856  	409.982
930.111   	1007.23
932.362   	650.381
934.61   	247.578
936.855  	244.342
939.096      	1109.29
941.333  	454.997
943.567   	350.932
945.798   	556.576
948.025  	934.457
950.248  	737.55
952.468     	82.0761
954.684    	122.19
956.897   	729.056
959.106  	792.711
961.311  	336.957
963.513   	524.534
965.712   	537.355
967.906   	254.048
970.098  	659.96
972.285  	1045.14
974.469   	69.0534
976.649   	243.263
978.826  	698.246
980.999  	687.615
983.168       	1019.87
985.333    	66.8824
987.495  	-80.0757
989.654  	459.281
991.808    	163.327
993.959      	609.908
996.106  	402.473
998.249  	345.558
1000.39 	605.645
1002.53 	631.216
1004.66 	549.103
1006.79 	601.381
1008.91      	612.039
1011.03  	566.183
1013.15 	601.381
1015.26 	206.564
1017.37  	40.8161
1019.48       	451.784
1021.58  	206.564
1023.68  	633.346
1025.77  	890.09
1027.86  	689.742
1029.95 	352.007
1032.03    	897.488
1034.11  	941.847
1036.18   	358.454
1038.26  	495.669
1040.32 	490.32
1042.39    	1129.26
1044.45  	399.254
1045.55 	1222.62