File: JinData/Spectra_output_0_1736791263.txt
Wavelength [nm]    	Intensity [counts]
344.912	-1971.13
347.743   	269.356
350.574  	368.337
353.402 	535.432
356.229 	706.961
359.054  	418.776
361.878	989.524
364.7	811.997
367.52    	628.234
370.339	808.818
373.155	1598.39
375.97   	1004.28
378.784 	874.443
381.596	651.659
384.405	987.416
387.214 	909.323
390.02  	1016.92
392.825  	621.842
395.628 	906.153
398.429	364.04
401.228   	634.624
404.026    	869.155
406.822  	988.47
409.616	429.497
412.408	205.7
415.198	141.9
417.987	971.6
420.773	522.611
423.558 	411.269
426.341 	507.646
429.122 	910.379
431.901  	549.316
434.679  	344.698
437.454	404.833
440.228	851.171
443 	869.155
445.769	1088.48
448.537	484.115
451.303	904.04
454.067  	1574.49
456.829	496.952
459.589	317.812
462.347	686.765
465.103  	146.23
467.858  	664.429
470.61  	553.587
473.36 	930.445
476.108	1192.43
478.854 	41.0333
481.598 	308.127
484.341   	1258.44
487.081  	1165.16
489.819  	287.671
492.555 	372.633
495.289  	1322.25
498.021 	633.559
500.75  	428.425
503.478 	488.395
506.204	1052.72
508.927    	458.424
511.649   	505.507
514.368 	524.748
517.085 	779.141
519.8  	350.072
522.513  	433.784
525.224   	634.624
527.932 	443.428
530.639   	324.267
533.343  	819.411
536.045 	267.2
538.745     	953.666
541.443 	1027.45
544.138  	655.916
546.832    	243.479
549.523 	504.438
552.211    	938.891
554.898  	500.161
557.582  	786.563
560.264 	736.701
562.944 	661.237
565.622   	778.081
568.297   	525.817
570.97  	689.954
573.641  	602.66
576.309 	734.577
578.975  	552.519
581.639 	775.96
584.3  	710.148
586.959    	461.637
589.616     	686.765
592.271  	1031.67
594.923   	1005.33
597.572      	503.369
600.22  	279.054
602.865   	413.414
605.507  	1190.33
608.147  	446.643
610.785  	739.885
613.42  	789.743
616.053 	159.216
618.683   	234.848
621.311   	456.283
623.937 	933.613
626.56 	641.013
629.18 	327.494
631.799   	537.569
634.414 	1028.51
637.027       	1143.12
639.638  	698.458
642.246  	305.975
644.852   	843.763
647.455 	1542.26
650.055 	369.411
652.654 	365.115
655.249     	883.959
657.842  	850.113
660.432  	270.433
663.02    	761.11
665.605   	944.169
668.188  	740.947
670.768 	505.507
673.345  	179.765
675.92 	430.569
678.492  	386.591
681.062  	902.983
683.629  	-142.156
686.193  	633.559
688.755   	589.866
691.314  	420.921
693.87   	758.988
696.423  	577.066
698.974   	238.085
701.523  	658.044
704.068   	434.856
706.611    	746.254
709.151  	871.27
711.688 	388.737
714.223   	764.293
716.755 	137.57
719.284   	907.21
721.81   	663.365
724.334  	693.144
726.855 	872.328
729.373 	439.143
731.888   	569.597
734.4      	365.115
736.91  	1012.71
739.417  	921.998
741.921  	481.975
744.422  	233.769
746.92  	1088.48
749.416   	972.654
751.908  	843.763
754.398  	276.899
756.885 	551.452
759.369   	112.655
761.85  	568.53
764.328         	514.06
766.803   	931.501
769.276 	781.262
771.745  	400.542
774.212  	417.704
776.675    	1008.49
779.136   	758.988
781.594  	746.254
784.048    	456.283
786.5 	1096.89
788.949 	728.206
791.395       	465.92
793.837  	-2.46685
796.277   	230.532
798.714 	464.849
801.148  	678.258
803.578  	400.542
806.006      	972.654
808.43   	1198.72
810.852    	518.336
813.271     	354.371
815.686  	1039.04
818.098  	587.733
820.508   	725.02
822.914  	9.50281
825.317  	732.454
827.717  	864.924
830.114   	476.624
832.507  	75.7826
834.898  	755.805
837.285 	622.908
839.669 	312.432
842.051 	367.263
844.429 	486.255
846.803  	661.237
849.175  	415.559
851.543 	384.444
853.908   	610.121
856.27  	900.87
858.629   	613.318
860.985  	683.575
863.337  	821.53
865.686    	625.038
868.032   	710.148
870.375    	536.5
872.714  	617.581
875.05     	678.258
877.382  	432.712
879.712     	493.743
882.038     	945.224
884.361    	697.396
886.68   	540.773
888.997    	542.909
891.309  	703.773
893.619  	590.932
895.925  	735.639
898.228    	453.07
900.527  	610.121
902.823   	448.785
905.116     	547.181
907.406   	395.177
909.692  	596.263
911.974  	197.058
914.253  	526.885
916.529    	798.222
918.801   	1191.38
921.07    	653.787
923.335   	629.299
925.597    	454.141
927.856  	550.384
930.111   	1039.04
932.362   	551.452
934.61   	222.977
936.855  	343.623
939.096      	919.885
941.333  	537.569
943.567   	450.927
945.798   	552.519
948.025  	1069.55
950.248  	571.732
952.468     	108.319
954.684    	324.267
956.897   	742.009
959.106  	758.988
961.311  	398.396
963.513   	481.975
965.712   	726.082
967.906   	249.95
970.098  	647.401
972.285  	1057.98
974.469   	251.029
976.649   	321.04
978.826  	641.013
980.999  	871.27
983.168       	1135.77
985.333    	107.236
987.495  	-22.0653
989.654  	583.467
991.808    	339.323
993.959      	429.497
996.106  	342.548
998.249  	525.817
1000.39 	695.27
1002.53 	511.922
1004.66 	520.473
1006.79 	796.103
1008.91      	791.863
1011.03  	515.129
1013.15 	717.585
1015.26 	153.806
1017.37  	167.87
1019.48       	368.337
1021.58  	140.818
1023.68  	1014.82
1025.77  	1129.47
1027.86  	633.559
1029.95 	355.445
1032.03    	1081.12
1034.11  	996.903
1036.18   	284.44
1038.26  	428.425
1040.32 	536.5
1042.39    	1263.68
1044.45  	530.091
1045.55 	1196.63