File: JinData/Spectra_output_0_1736790118.txt
Wavelength [nm]    	Intensity [counts]
344.912	-1792.43
347.743   	396.751
350.574  	338.749
353.402 	424.637
356.229 	571.162
359.054  	453.569
361.878	935.161
364.7	592.496
367.52    	757.361
370.339	685.134
373.155	1428.19
375.97   	944.661
378.784 	696.829
381.596	681.944
384.405	923.547
387.214 	789.178
390.02  	909.815
392.825  	483.544
395.628 	835.789
398.429	369.912
401.228   	706.394
404.026    	841.081
406.822  	1010.04
409.616	470.701
412.408	166.212
415.198	164.048
417.987	941.495
420.773	351.648
423.558 	325.845
426.341 	381.724
429.122 	907.703
431.901  	486.754
434.679  	366.69
437.454	251.532
440.228	935.161
443 	654.284
445.769	943.606
448.537	465.349
451.303	808.253
454.067  	1658.06
456.829	378.503
459.589	261.236
462.347	680.881
465.103  	119.662
467.858  	713.831
470.61  	518.834
473.36 	933.05
476.108	1090.02
478.854 	102.321
481.598 	355.947
484.341   	1276.72
487.081  	1088.97
489.819  	301.095
492.555 	438.571
495.289  	1295.55
498.021 	619.143
500.75  	329.071
503.478 	395.678
506.204	863.302
508.927    	302.171
511.649   	407.479
514.368 	432.141
517.085 	823.083
519.8  	224.56
522.513  	418.204
525.224   	687.261
527.932 	388.165
530.639   	352.723
533.343  	923.547
536.045 	348.424
538.745     	848.49
541.443 	863.302
544.138  	742.504
546.832    	353.797
549.523 	662.797
552.211    	947.827
554.898  	520.972
557.582  	860.129
560.264 	756.3
562.944 	531.657
565.622   	760.544
568.297   	406.407
570.97  	579.698
573.641  	423.565
576.309 	740.381
578.975  	477.123
581.639 	626.6
584.3  	612.75
586.959    	397.824
589.616     	667.053
592.271  	939.384
594.923   	939.384
597.572      	341.974
600.22  	437.499
602.865   	325.845
605.507  	1177.19
608.147  	331.222
610.785  	753.117
613.42  	738.258
616.053 	158.639
618.683   	294.635
621.311   	310.782
623.937 	805.075
626.56 	272.014
629.18 	358.096
631.799   	637.251
634.414 	879.166
637.027       	1244.27
639.638  	746.75
642.246  	368.838
644.852   	778.576
647.455 	1408.37
650.055 	175.945
652.654 	206.204
655.249     	870.706
657.842  	889.738
660.432  	264.47
663.02    	760.544
665.605   	1018.47
668.188  	756.3
670.768 	424.637
673.345  	228.877
675.92 	288.174
678.492  	305.401
681.062  	849.548
683.629  	118.578
686.193  	594.628
688.755   	503.868
691.314  	422.493
693.87   	772.213
696.423  	343.049
698.974   	103.405
701.523  	670.245
704.068   	539.135
706.611    	746.75
709.151  	743.565
711.688 	500.66
714.223   	797.657
716.755 	178.107
719.284   	788.118
721.81   	569.028
724.334  	659.605
726.855 	805.075
729.373 	403.188
731.888   	518.834
734.4      	283.865
736.91  	735.073
739.417  	827.319
741.921  	437.499
744.422  	351.648
746.92  	1066.89
749.416   	972.092
751.908  	623.405
754.398  	381.724
756.885 	640.445
759.369   	46.9727
761.85  	581.831
764.328         	428.925
766.803   	831.554
769.276 	754.178
771.745  	438.571
774.212  	652.155
776.675    	1000.56
779.136   	779.636
781.594  	781.757
784.048    	446.071
786.5 	1099.49
788.949 	582.898
791.395       	631.926
793.837  	-97.9122
796.277   	187.836
798.714 	274.169
801.148  	725.516
803.578  	327.996
806.006      	936.217
808.43   	1106.84
810.852    	450.356
813.271     	472.842
815.686  	1205.5
818.098  	515.628
820.508   	756.3
822.914  	-143.834
825.317  	675.563
827.717  	763.727
830.114   	492.103
832.507  	21.9744
834.898  	630.861
837.285 	825.201
839.669 	386.018
842.051 	429.997
844.429 	614.881
846.803  	589.297
849.175  	236.431
851.543 	471.772
853.908   	602.091
856.27  	818.846
858.629   	598.893
860.985  	765.849
863.337  	810.372
865.686    	630.861
868.032   	762.666
870.375    	502.798
872.714  	480.334
875.05     	603.157
877.382  	348.424
879.712     	450.356
882.038     	881.28
884.361    	548.747
886.68   	602.091
888.997    	702.143
891.309  	456.782
893.619  	535.931
895.925  	723.391
898.228    	477.123
900.527  	732.949
902.823   	393.531
905.116     	374.208
907.406   	372.06
909.692  	351.648
911.974  	117.495
914.253  	664.925
916.529    	665.989
918.801   	1140.46
921.07    	515.628
923.335   	592.496
925.597    	596.761
927.856  	562.625
930.111   	1148.86
932.362   	590.363
934.61   	447.142
936.855  	272.014
939.096      	1037.42
941.333  	586.097
943.567   	410.697
945.798   	481.404
948.025  	984.745
950.248  	701.08
952.468     	92.5619
954.684    	321.542
956.897   	611.684
959.106  	778.576
961.311  	437.499
963.513   	495.312
965.712   	635.121
967.906   	344.124
970.098  	493.173
972.285  	942.55
974.469   	166.212
976.649   	175.945
978.826  	577.564
980.999  	706.394
983.168       	1172.99
985.333    	81.7143
987.495  	105.573
989.654  	519.903
991.808    	185.675
993.959      	553.018
996.106  	292.481
998.249  	401.043
1000.39 	614.881
1002.53 	452.498
1004.66 	450.356
1006.79 	723.391
1008.91      	790.238
1011.03  	488.894
1013.15 	587.164
1015.26 	297.865
1017.37  	254.767
1019.48       	323.693
1021.58  	151.065
1023.68  	862.244
1025.77  	1016.36
1027.86  	762.666
1029.95 	395.678
1032.03    	904.533
1034.11  	826.26
1036.18   	413.915
1038.26  	360.244
1040.32 	547.679
1042.39    	1209.7
1044.45  	418.204
1045.55 	1197.12