File: JinData/Spectra_output_0_1736790505.txt
Wavelength [nm]    	Intensity [counts]
344.912	-1879.86
347.743   	299.659
350.574  	303.966
353.402 	504.581
356.229 	581.475
359.054  	278.12
361.878	1016.01
364.7	712.415
367.52    	636.896
370.339	782.464
373.155	1541.36
375.97   	1108.59
378.784 	813.197
381.596	626.245
384.405	911.576
387.214 	805.781
390.02  	931.642
392.825  	443.571
395.628 	859.776
398.429	354.514
401.228   	717.727
404.026    	971.74
406.822  	1049.7
409.616	416.774
412.408	210.164
415.198	279.197
417.987	903.124
420.773	437.142
423.558 	479.977
426.341 	487.467
429.122 	854.486
431.901  	476.767
434.679  	324.41
437.454	274.887
440.228	960.137
443 	802.602
445.769	1023.38
448.537	455.354
451.303	761.252
454.067  	1654.6
456.829	352.365
459.589	159.361
462.347	776.101
465.103  	162.606
467.858  	679.463
470.61  	565.471
473.36 	866.123
476.108	1136.96
478.854 	134.465
481.598 	391.027
484.341   	1314.03
487.081  	1121.2
489.819  	218.802
492.555 	534.506
495.289  	1360.01
498.021 	635.831
500.75  	489.607
503.478 	383.513
506.204	920.026
508.927    	328.713
511.649   	498.164
514.368 	383.513
517.085 	810.019
519.8  	353.439
522.513  	253.329
525.224   	782.464
527.932 	425.352
530.639   	324.41
533.343  	912.633
536.045 	292.122
538.745     	797.304
541.443 	1051.81
544.138  	748.518
546.832    	142.045
549.523 	472.486
552.211    	1092.83
554.898  	570.807
557.582  	824.848
560.264 	868.238
562.944 	702.851
565.622   	818.493
568.297   	427.496
570.97  	653.929
573.641  	651.8
576.309 	707.102
578.975  	668.826
581.639 	707.102
584.3  	937.976
586.959    	434.999
589.616     	684.78
592.271  	928.474
594.923   	869.296
597.572      	691.159
600.22  	345.916
602.865   	517.409
605.507  	1157.95
608.147  	379.219
610.785  	637.961
613.42  	591.074
616.053 	87.8619
618.683   	158.279
621.311   	470.345
623.937 	836.494
626.56 	359.886
629.18 	391.027
631.799   	560.135
634.414 	935.865
637.027       	1117
639.638  	682.653
642.246  	360.961
644.852   	905.237
647.455 	1567.35
650.055 	340.541
652.654 	354.514
655.249     	937.976
657.842  	891.499
660.432  	246.859
663.02    	793.064
665.605   	936.921
668.188  	736.842
670.768 	577.208
673.345  	133.383
675.92 	461.78
678.492  	281.352
681.062  	713.477
683.629  	61.8158
686.193  	574.008
688.755   	491.747
691.314  	409.267
693.87   	708.165
696.423  	414.63
698.974   	217.723
701.523  	617.723
704.068   	534.506
706.611    	657.122
709.151  	923.195
711.688 	512.065
714.223   	848.137
716.755 	178.828
719.284   	848.137
721.81   	694.348
724.334  	695.411
726.855 	813.197
729.373 	284.583
731.888   	543.051
734.4      	257.642
736.91  	898.897
739.417  	884.1
741.921  	434.999
744.422  	379.219
746.92  	1010.74
749.416   	843.904
751.908  	677.336
754.398  	419.991
756.885 	471.415
759.369   	77.0124
761.85  	577.208
764.328         	460.709
766.803   	929.53
769.276 	721.975
771.745  	417.847
774.212  	469.274
776.675    	958.027
779.136   	737.904
781.594  	772.92
784.048    	423.208
786.5 	1132.76
788.949 	616.657
791.395       	548.391
793.837  	-79.7119
796.277   	257.642
798.714 	348.066
801.148  	577.208
803.578  	355.589
806.006      	861.892
808.43   	1181.04
810.852    	577.208
813.271     	369.554
815.686  	1173.69
818.098  	670.954
820.508   	735.78
822.914  	-115.761
825.317  	859.776
827.717  	800.483
830.114   	535.575
832.507  	106.296
834.898  	746.396
837.285 	726.224
839.669 	289.969
842.051 	353.439
844.429 	525.959
846.803  	610.263
849.175  	271.655
851.543 	317.956
853.908   	629.441
856.27  	784.584
858.629   	625.18
860.985  	728.348
863.337  	737.904
865.686    	551.594
868.032   	718.789
870.375    	545.187
872.714  	641.155
875.05     	690.096
877.382  	379.219
879.712     	515.272
882.038     	811.079
884.361    	632.636
886.68   	615.591
888.997    	735.78
891.309  	598.538
893.619  	625.18
895.925  	760.191
898.228    	479.977
900.527  	709.227
902.823   	547.323
905.116     	607.066
907.406   	491.747
909.692  	458.567
911.974  	293.199
914.253  	747.457
916.529    	710.29
918.801   	1098.08
921.07    	642.22
923.335   	601.736
925.597    	378.145
927.856  	540.915
930.111   	1039.18
932.362   	545.187
934.61   	413.557
936.855  	269.499
939.096      	1080.21
941.333  	551.594
943.567   	482.118
945.798   	586.808
948.025  	1058.12
950.248  	714.54
952.468     	147.457
954.684    	285.661
956.897   	656.058
959.106  	794.124
961.311  	274.887
963.513   	553.729
965.712   	565.471
967.906   	362.035
970.098  	345.916
972.285  	1048.65
974.469   	227.438
976.649   	314.728
978.826  	670.954
980.999  	817.434
983.168       	1128.56
985.333    	29.2228
987.495  	58.5583
989.654  	706.04
991.808    	287.815
993.959      	581.475
996.106  	446.785
998.249  	504.581
1000.39 	772.92
1002.53 	455.354
1004.66 	530.233
1006.79 	721.975
1008.91      	793.064
1011.03  	556.932
1013.15 	585.742
1015.26 	204.764
1017.37  	217.723
1019.48       	436.071
1021.58  	271.655
1023.68  	904.181
1025.77  	933.753
1027.86  	708.165
1029.95 	329.788
1032.03    	1020.22
1034.11  	961.192
1036.18   	311.5
1038.26  	554.797
1040.32 	562.269
1042.39    	1342.25
1044.45  	430.712
1045.55 	1297.3