File: JinData/Spectra_output_0_1736789367.txt
Wavelength [nm]    	Intensity [counts]
344.912	-1712.17
347.743   	192.88
350.574  	223.121
353.402 	412.485
356.229 	536.643
359.054  	358.812
361.878	857.66
364.7	600.67
367.52    	663.507
370.339	727.286
373.155	1421.58
375.97   	835.436
378.784 	761.252
381.596	562.269
384.405	870.354
387.214 	723.038
390.02  	886.214
392.825  	431.784
395.628 	945.365
398.429	223.121
401.228   	648.607
404.026    	1002.31
406.822  	935.865
409.616	445.714
412.408	203.684
415.198	222.041
417.987	933.753
420.773	364.184
423.558 	338.391
426.341 	510.996
429.122 	646.478
431.901  	471.415
434.679  	278.12
437.454	187.476
440.228	905.237
443 	760.191
445.769	1056.02
448.537	524.891
451.303	841.787
454.067  	1436.18
456.829	437.142
459.589	155.033
462.347	502.442
465.103  	-78.6203
467.858  	765.495
470.61  	401.758
473.36 	662.443
476.108	931.642
478.854 	13.9991
481.598 	326.562
484.341   	1302.53
487.081  	1120.15
489.819  	374.924
492.555 	424.28
495.289  	1381.93
498.021 	475.697
500.75  	321.183
503.478 	449.999
506.204	862.95
508.927    	189.638
511.649   	416.774
514.368 	411.412
517.085 	611.329
519.8  	202.603
522.513  	440.357
525.224   	767.617
527.932 	324.41
530.639   	112.799
533.343  	958.027
536.045 	329.788
538.745     	899.954
541.443 	760.191
544.138  	789.884
546.832    	150.704
549.523 	478.907
552.211    	866.123
554.898  	484.258
557.582  	1025.49
560.264 	626.245
562.944 	601.736
565.622   	823.789
568.297   	368.48
570.97  	727.286
573.641  	440.357
576.309 	813.197
578.975  	528.096
581.639 	601.736
584.3  	771.859
586.959    	306.118
589.616     	731.533
592.271  	804.722
594.923   	937.976
597.572      	563.337
600.22  	288.892
602.865   	383.513
605.507  	887.271
608.147  	306.118
610.785  	730.471
613.42  	647.543
616.053 	152.868
618.683   	159.361
621.311   	238.229
623.937 	794.124
626.56 	196.121
629.18 	220.962
631.799   	626.245
634.414 	829.083
637.027       	1057.07
639.638  	681.59
642.246  	372.776
644.852   	643.284
647.455 	1430.97
650.055 	233.913
652.654 	300.736
655.249     	778.222
657.842  	724.1
660.432  	197.202
663.02    	923.195
665.605   	898.897
668.188  	627.311
670.768 	473.556
673.345  	66.1586
675.92 	440.357
678.492  	192.88
681.062  	677.336
683.629  	-48.074
686.193  	548.391
688.755   	282.429
691.314  	197.202
693.87   	779.283
696.423  	350.215
698.974   	-32.8144
701.523  	735.78
704.068   	416.774
706.611    	598.538
709.151  	721.975
711.688 	362.035
714.223   	840.729
716.755 	79.1826
719.284   	762.313
721.81   	515.272
724.334  	444.643
726.855 	719.851
729.373 	270.577
731.888   	595.339
734.4      	335.165
736.91  	667.762
739.417  	729.41
741.921  	492.816
744.422  	476.767
746.92  	1009.69
749.416   	871.411
751.908  	836.494
754.398  	395.32
756.885 	476.767
759.369   	-38.2632
761.85  	613.46
764.328         	467.133
766.803   	852.37
769.276 	650.736
771.745  	309.347
774.212  	639.025
776.675    	762.313
779.136   	621.984
781.594  	762.313
784.048    	408.194
786.5 	1059.17
788.949 	484.258
791.395       	555.865
793.837  	-89.5384
796.277   	91.1159
798.714 	297.506
801.148  	740.027
803.578  	350.215
806.006      	861.892
808.43   	984.394
810.852    	650.736
813.271     	367.406
815.686  	1128.56
818.098  	496.025
820.508   	823.789
822.914  	-36.0836
825.317  	781.403
827.717  	683.717
830.114   	490.677
832.507  	-19.7418
834.898  	695.411
837.285 	689.033
839.669 	287.815
842.051 	402.831
844.429 	483.188
846.803  	568.673
849.175  	281.352
851.543 	279.197
853.908   	522.753
856.27  	839.67
858.629   	684.78
860.985  	593.207
863.337  	691.159
865.686    	460.709
868.032   	682.653
870.375    	537.711
872.714  	386.734
875.05     	429.64
877.382  	314.728
879.712     	425.352
882.038     	880.928
884.361    	537.711
886.68   	629.441
888.997    	554.797
891.309  	411.412
893.619  	537.711
895.925  	768.677
898.228    	367.406
900.527  	546.255
902.823   	297.506
905.116     	600.67
907.406   	415.702
909.692  	473.556
911.974  	140.962
914.253  	645.414
916.529    	768.677
918.801   	1129.61
921.07    	529.165
923.335   	598.538
925.597    	537.711
927.856  	522.753
930.111   	1113.85
932.362   	521.685
934.61   	273.81
936.855  	171.259
939.096      	1099.14
941.333  	710.29
943.567   	432.855
945.798   	367.406
948.025  	942.198
950.248  	750.641
952.468     	205.844
954.684    	444.643
956.897   	609.197
959.106  	887.271
961.311  	317.956
963.513   	452.141
965.712   	616.657
967.906   	341.616
970.098  	632.636
972.285  	862.95
974.469   	84.6075
976.649   	211.244
978.826  	586.808
980.999  	783.524
983.168       	1093.88
985.333    	101.96
987.495  	0.943208
989.654  	500.303
991.808    	135.548
993.959      	668.826
996.106  	241.465
998.249  	628.376
1000.39 	582.542
1002.53 	432.855
1004.66 	458.567
1006.79 	673.081
1008.91      	700.726
1011.03  	580.409
1013.15 	717.727
1015.26 	99.7913
1017.37  	155.033
1019.48       	366.332
1021.58  	208.004
1023.68  	719.851
1025.77  	958.027
1027.86  	753.825
1029.95 	301.813
1032.03    	838.612
1034.11  	848.137
1036.18   	427.496
1038.26  	471.415
1040.32 	559.067
1042.39    	1067.59
1044.45  	485.328
1045.55 	1198.86